#  E (eV)   dos(E)     Int dos(E) EFermi =   23.612 eV
  10.000  0.1492E-84  0.7460E-86
  10.050  0.1492E-84  0.1492E-85
  10.100  0.1492E-84  0.2238E-85
  10.150  0.1492E-84  0.2984E-85
  10.200  0.1492E-84  0.3730E-85
  10.250  0.1492E-84  0.4476E-85
  10.300  0.1492E-84  0.5222E-85
  10.350  0.1492E-84  0.5968E-85
  10.400  0.1492E-84  0.6714E-85
  10.450  0.1492E-84  0.7460E-85
  10.500  0.1492E-84  0.8206E-85
  10.550  0.1492E-84  0.8952E-85
  10.600  0.1492E-84  0.9698E-85
  10.650  0.1492E-84  0.1044E-84
  10.700  0.1492E-84  0.1119E-84
  10.750  0.1492E-84  0.1194E-84
  10.800  0.1492E-84  0.1268E-84
  10.850  0.1492E-84  0.1343E-84
  10.900  0.1492E-84  0.1417E-84
  10.950  0.1492E-84  0.1492E-84
  11.000  0.1492E-84  0.1567E-84
  11.050  0.1492E-84  0.1641E-84
  11.100  0.1492E-84  0.1716E-84
  11.150  0.1492E-84  0.1790E-84
  11.200  0.1492E-84  0.1865E-84
  11.250  0.1492E-84  0.1940E-84
  11.300  0.1492E-84  0.2014E-84
  11.350  0.1492E-84  0.2089E-84
  11.400  0.1492E-84  0.2163E-84
  11.450  0.2786E-84  0.2303E-84
  11.500  0.2798E-80  0.1401E-81
  11.550  0.4617E-76  0.2309E-77
  11.600  0.5817E-72  0.2909E-73
  11.650  0.5593E-68  0.2797E-69
  11.700  0.4105E-64  0.2053E-65
  11.750  0.2300E-60  0.1150E-61
  11.800  0.9834E-57  0.4918E-58
  11.850  0.3210E-53  0.1605E-54
  11.900  0.7998E-50  0.4000E-51
  11.950  0.1521E-46  0.7609E-48
  12.000  0.2208E-43  0.1105E-44
  12.050  0.2446E-40  0.1224E-41
  12.100  0.2069E-37  0.1036E-38
  12.150  0.1336E-34  0.6688E-36
  12.200  0.6581E-32  0.3297E-33
  12.250  0.2475E-29  0.1241E-30
  12.300  0.7106E-27  0.3566E-28
  12.350  0.1557E-24  0.7822E-26
  12.400  0.2605E-22  0.1310E-23
  12.450  0.3326E-20  0.1676E-21
  12.500  0.3241E-18  0.1637E-19
  12.550  0.2411E-16  0.1222E-17
  12.600  0.1369E-14  0.6967E-16
  12.650  0.5934E-13  0.3036E-14
  12.700  0.1963E-11  0.1012E-12
  12.750  0.4957E-10  0.2580E-11
  12.800  0.9555E-09  0.5035E-10
  12.850  0.1406E-07  0.7533E-09
  12.900  0.1579E-06  0.8649E-08
  12.950  0.1355E-05  0.7638E-07
  13.000  0.8879E-05  0.5203E-06
  13.050  0.4456E-04  0.2748E-05
  13.100  0.1720E-03  0.1135E-04
  13.150  0.5173E-03  0.3722E-04
  13.200  0.1249E-02  0.9969E-04
  13.250  0.2580E-02  0.2287E-03
  13.300  0.4979E-02  0.4777E-03
  13.350  0.9432E-02  0.9493E-03
  13.400  0.1676E-01  0.1787E-02
  13.450  0.2576E-01  0.3075E-02
  13.500  0.3249E-01  0.4700E-02
  13.550  0.3335E-01  0.6367E-02
  13.600  0.2934E-01  0.7834E-02
  13.650  0.2590E-01  0.9129E-02
  13.700  0.2787E-01  0.1052E-01
  13.750  0.3542E-01  0.1229E-01
  13.800  0.4622E-01  0.1460E-01
  13.850  0.5939E-01  0.1757E-01
  13.900  0.7358E-01  0.2125E-01
  13.950  0.8227E-01  0.2537E-01
  14.000  0.7749E-01  0.2924E-01
  14.050  0.5975E-01  0.3223E-01
  14.100  0.3947E-01  0.3420E-01
  14.150  0.2768E-01  0.3559E-01
  14.200  0.2888E-01  0.3703E-01
  14.250  0.4276E-01  0.3917E-01
  14.300  0.6714E-01  0.4252E-01
  14.350  0.9551E-01  0.4730E-01
  14.400  0.1155E+00  0.5308E-01
  14.450  0.1173E+00  0.5894E-01
  14.500  0.1044E+00  0.6416E-01
  14.550  0.9098E-01  0.6871E-01
  14.600  0.8675E-01  0.7304E-01
  14.650  0.8996E-01  0.7754E-01
  14.700  0.9460E-01  0.8227E-01
  14.750  0.9660E-01  0.8710E-01
  14.800  0.9210E-01  0.9171E-01
  14.850  0.7861E-01  0.9564E-01
  14.900  0.6138E-01  0.9871E-01
  14.950  0.5297E-01  0.1014E+00
  15.000  0.6484E-01  0.1046E+00
  15.050  0.1002E+00  0.1096E+00
  15.100  0.1501E+00  0.1171E+00
  15.150  0.1918E+00  0.1267E+00
  15.200  0.2012E+00  0.1368E+00
  15.250  0.1764E+00  0.1456E+00
  15.300  0.1442E+00  0.1528E+00
  15.350  0.1331E+00  0.1595E+00
  15.400  0.1455E+00  0.1667E+00
  15.450  0.1605E+00  0.1748E+00
  15.500  0.1590E+00  0.1827E+00
  15.550  0.1380E+00  0.1896E+00
  15.600  0.1062E+00  0.1949E+00
  15.650  0.7796E-01  0.1988E+00
  15.700  0.7164E-01  0.2024E+00
  15.750  0.1044E+00  0.2076E+00
  15.800  0.1791E+00  0.2166E+00
  15.850  0.2741E+00  0.2303E+00
  15.900  0.3495E+00  0.2477E+00
  15.950  0.3733E+00  0.2664E+00
  16.000  0.3472E+00  0.2838E+00
  16.050  0.3090E+00  0.2992E+00
  16.100  0.3046E+00  0.3145E+00
  16.150  0.3530E+00  0.3321E+00
  16.200  0.4310E+00  0.3537E+00
  16.250  0.4930E+00  0.3783E+00
  16.300  0.5116E+00  0.4039E+00
  16.350  0.5042E+00  0.4291E+00
  16.400  0.5172E+00  0.4550E+00
  16.450  0.5825E+00  0.4841E+00
  16.500  0.6945E+00  0.5188E+00
  16.550  0.8219E+00  0.5599E+00
  16.600  0.9317E+00  0.6065E+00
  16.650  0.1001E+01  0.6565E+00
  16.700  0.1016E+01  0.7073E+00
  16.750  0.9842E+00  0.7565E+00
  16.800  0.9473E+00  0.8039E+00
  16.850  0.9726E+00  0.8525E+00
  16.900  0.1099E+01  0.9075E+00
  16.950  0.1298E+01  0.9724E+00
  17.000  0.1481E+01  0.1046E+01
  17.050  0.1561E+01  0.1125E+01
  17.100  0.1518E+01  0.1200E+01
  17.150  0.1424E+01  0.1272E+01
  17.200  0.1366E+01  0.1340E+01
  17.250  0.1365E+01  0.1408E+01
  17.300  0.1387E+01  0.1477E+01
  17.350  0.1402E+01  0.1548E+01
  17.400  0.1400E+01  0.1618E+01
  17.450  0.1390E+01  0.1687E+01
  17.500  0.1393E+01  0.1757E+01
  17.550  0.1425E+01  0.1828E+01
  17.600  0.1465E+01  0.1901E+01
  17.650  0.1466E+01  0.1974E+01
  17.700  0.1398E+01  0.2044E+01
  17.750  0.1287E+01  0.2109E+01
  17.800  0.1191E+01  0.2168E+01
  17.850  0.1140E+01  0.2225E+01
  17.900  0.1105E+01  0.2281E+01
  17.950  0.1044E+01  0.2333E+01
  18.000  0.9643E+00  0.2381E+01
  18.050  0.9263E+00  0.2427E+01
  18.100  0.9682E+00  0.2476E+01
  18.150  0.1060E+01  0.2529E+01
  18.200  0.1138E+01  0.2586E+01
  18.250  0.1171E+01  0.2644E+01
  18.300  0.1177E+01  0.2703E+01
  18.350  0.1199E+01  0.2763E+01
  18.400  0.1271E+01  0.2827E+01
  18.450  0.1389E+01  0.2896E+01
  18.500  0.1510E+01  0.2972E+01
  18.550  0.1573E+01  0.3050E+01
  18.600  0.1557E+01  0.3128E+01
  18.650  0.1501E+01  0.3203E+01
  18.700  0.1460E+01  0.3276E+01
  18.750  0.1444E+01  0.3348E+01
  18.800  0.1426E+01  0.3420E+01
  18.850  0.1395E+01  0.3489E+01
  18.900  0.1398E+01  0.3559E+01
  18.950  0.1492E+01  0.3634E+01
  19.000  0.1678E+01  0.3718E+01
  19.050  0.1881E+01  0.3812E+01
  19.100  0.1998E+01  0.3912E+01
  19.150  0.1970E+01  0.4010E+01
  19.200  0.1831E+01  0.4102E+01
  19.250  0.1684E+01  0.4186E+01
  19.300  0.1632E+01  0.4268E+01
  19.350  0.1694E+01  0.4352E+01
  19.400  0.1826E+01  0.4444E+01
  19.450  0.1987E+01  0.4543E+01
  19.500  0.2148E+01  0.4650E+01
  19.550  0.2259E+01  0.4763E+01
  19.600  0.2239E+01  0.4875E+01
  19.650  0.2032E+01  0.4977E+01
  19.700  0.1676E+01  0.5061E+01
  19.750  0.1285E+01  0.5125E+01
  19.800  0.9811E+00  0.5174E+01
  19.850  0.8314E+00  0.5215E+01
  19.900  0.8298E+00  0.5257E+01
  19.950  0.9175E+00  0.5303E+01
  20.000  0.1026E+01  0.5354E+01
  20.050  0.1133E+01  0.5411E+01
  20.100  0.1251E+01  0.5473E+01
  20.150  0.1356E+01  0.5541E+01
  20.200  0.1368E+01  0.5609E+01
  20.250  0.1248E+01  0.5672E+01
  20.300  0.1051E+01  0.5724E+01
  20.350  0.8766E+00  0.5768E+01
  20.400  0.7773E+00  0.5807E+01
  20.450  0.7586E+00  0.5845E+01
  20.500  0.8166E+00  0.5886E+01
  20.550  0.9373E+00  0.5933E+01
  20.600  0.1088E+01  0.5987E+01
  20.650  0.1246E+01  0.6049E+01
  20.700  0.1415E+01  0.6120E+01
  20.750  0.1573E+01  0.6199E+01
  20.800  0.1644E+01  0.6281E+01
  20.850  0.1565E+01  0.6359E+01
  20.900  0.1381E+01  0.6428E+01
  20.950  0.1209E+01  0.6489E+01
  21.000  0.1146E+01  0.6546E+01
  21.050  0.1201E+01  0.6606E+01
  21.100  0.1307E+01  0.6671E+01
  21.150  0.1376E+01  0.6740E+01
  21.200  0.1369E+01  0.6809E+01
  21.250  0.1320E+01  0.6875E+01
  21.300  0.1285E+01  0.6939E+01
  21.350  0.1278E+01  0.7003E+01
  21.400  0.1286E+01  0.7067E+01
  21.450  0.1311E+01  0.7133E+01
  21.500  0.1376E+01  0.7202E+01
  21.550  0.1490E+01  0.7276E+01
  21.600  0.1624E+01  0.7357E+01
  21.650  0.1734E+01  0.7444E+01
  21.700  0.1782E+01  0.7533E+01
  21.750  0.1756E+01  0.7621E+01
  21.800  0.1670E+01  0.7704E+01
  21.850  0.1544E+01  0.7782E+01
  21.900  0.1390E+01  0.7851E+01
  21.950  0.1218E+01  0.7912E+01
  22.000  0.1044E+01  0.7964E+01
  22.050  0.8908E+00  0.8009E+01
  22.100  0.7842E+00  0.8048E+01
  22.150  0.7440E+00  0.8085E+01
  22.200  0.7712E+00  0.8124E+01
  22.250  0.8612E+00  0.8167E+01
  22.300  0.1021E+01  0.8218E+01
  22.350  0.1245E+01  0.8280E+01
  22.400  0.1481E+01  0.8354E+01
  22.450  0.1651E+01  0.8437E+01
  22.500  0.1716E+01  0.8522E+01
  22.550  0.1681E+01  0.8606E+01
  22.600  0.1547E+01  0.8684E+01
  22.650  0.1316E+01  0.8750E+01
  22.700  0.1028E+01  0.8801E+01
  22.750  0.7620E+00  0.8839E+01
  22.800  0.5869E+00  0.8868E+01
  22.850  0.5360E+00  0.8895E+01
  22.900  0.6122E+00  0.8926E+01
  22.950  0.8021E+00  0.8966E+01
  23.000  0.1072E+01  0.9020E+01
  23.050  0.1368E+01  0.9088E+01
  23.100  0.1635E+01  0.9170E+01
  23.150  0.1824E+01  0.9261E+01
  23.200  0.1903E+01  0.9356E+01
  23.250  0.1882E+01  0.9450E+01
  23.300  0.1811E+01  0.9541E+01
  23.350  0.1745E+01  0.9628E+01
  23.400  0.1703E+01  0.9713E+01
  23.450  0.1658E+01  0.9796E+01
  23.500  0.1583E+01  0.9875E+01
  23.550  0.1479E+01  0.9949E+01
  23.600  0.1379E+01  0.1002E+02
  23.650  0.1312E+01  0.1008E+02
  23.700  0.1266E+01  0.1015E+02
  23.750  0.1216E+01  0.1021E+02
  23.800  0.1165E+01  0.1027E+02
  23.850  0.1143E+01  0.1032E+02
  23.900  0.1170E+01  0.1038E+02
  23.950  0.1215E+01  0.1044E+02
  24.000  0.1201E+01  0.1050E+02
  24.050  0.1068E+01  0.1056E+02
  24.100  0.8327E+00  0.1060E+02
  24.150  0.5777E+00  0.1063E+02
  24.200  0.3819E+00  0.1065E+02
  24.250  0.2660E+00  0.1066E+02
  24.300  0.2002E+00  0.1067E+02
  24.350  0.1491E+00  0.1068E+02
  24.400  0.1040E+00  0.1068E+02
  24.450  0.7998E-01  0.1069E+02
  24.500  0.9140E-01  0.1069E+02
  24.550  0.1340E+00  0.1070E+02
  24.600  0.1849E+00  0.1071E+02
  24.650  0.2187E+00  0.1072E+02
  24.700  0.2281E+00  0.1073E+02
  24.750  0.2328E+00  0.1074E+02
  24.800  0.2684E+00  0.1075E+02
  24.850  0.3608E+00  0.1077E+02
  24.900  0.5003E+00  0.1080E+02
  24.950  0.6381E+00  0.1083E+02
  25.000  0.7131E+00  0.1086E+02
  25.050  0.6900E+00  0.1090E+02
  25.100  0.5780E+00  0.1093E+02
  25.150  0.4215E+00  0.1095E+02
  25.200  0.2715E+00  0.1096E+02
  25.250  0.1616E+00  0.1097E+02
  25.300  0.1048E+00  0.1098E+02
  25.350  0.1022E+00  0.1098E+02
  25.400  0.1444E+00  0.1099E+02
  25.450  0.2059E+00  0.1100E+02
  25.500  0.2540E+00  0.1101E+02
  25.550  0.2678E+00  0.1102E+02
  25.600  0.2473E+00  0.1104E+02
  25.650  0.2043E+00  0.1105E+02
  25.700  0.1571E+00  0.1105E+02
  25.750  0.1306E+00  0.1106E+02
  25.800  0.1504E+00  0.1107E+02
  25.850  0.2228E+00  0.1108E+02
  25.900  0.3202E+00  0.1110E+02
  25.950  0.3938E+00  0.1112E+02
  26.000  0.4119E+00  0.1114E+02
  26.050  0.3885E+00  0.1116E+02
  26.100  0.3659E+00  0.1117E+02
  26.150  0.3694E+00  0.1119E+02
  26.200  0.3852E+00  0.1121E+02
  26.250  0.3833E+00  0.1123E+02
  26.300  0.3480E+00  0.1125E+02
  26.350  0.2871E+00  0.1126E+02
  26.400  0.2197E+00  0.1127E+02
  26.450  0.1657E+00  0.1128E+02
  26.500  0.1425E+00  0.1129E+02
  26.550  0.1608E+00  0.1130E+02
  26.600  0.2117E+00  0.1131E+02
  26.650  0.2651E+00  0.1132E+02
  26.700  0.2928E+00  0.1134E+02
  26.750  0.2945E+00  0.1135E+02
  26.800  0.2942E+00  0.1136E+02
  26.850  0.3115E+00  0.1138E+02
  26.900  0.3445E+00  0.1140E+02
  26.950  0.3757E+00  0.1142E+02
  27.000  0.3897E+00  0.1144E+02
  27.050  0.3811E+00  0.1145E+02
  27.100  0.3477E+00  0.1147E+02
  27.150  0.2907E+00  0.1149E+02
  27.200  0.2266E+00  0.1150E+02
  27.250  0.1792E+00  0.1151E+02
  27.300  0.1534E+00  0.1151E+02
  27.350  0.1328E+00  0.1152E+02
  27.400  0.1093E+00  0.1153E+02
  27.450  0.1014E+00  0.1153E+02
  27.500  0.1381E+00  0.1154E+02
  27.550  0.2236E+00  0.1155E+02
  27.600  0.3166E+00  0.1157E+02
  27.650  0.3541E+00  0.1158E+02
  27.700  0.3098E+00  0.1160E+02
  27.750  0.2219E+00  0.1161E+02
  27.800  0.1554E+00  0.1162E+02
  27.850  0.1465E+00  0.1163E+02
  27.900  0.1889E+00  0.1163E+02
  27.950  0.2565E+00  0.1165E+02
  28.000  0.3238E+00  0.1166E+02
  28.050  0.3690E+00  0.1168E+02
  28.100  0.3731E+00  0.1170E+02
  28.150  0.3319E+00  0.1172E+02
  28.200  0.2688E+00  0.1173E+02
  28.250  0.2179E+00  0.1174E+02
  28.300  0.1926E+00  0.1175E+02
  28.350  0.1802E+00  0.1176E+02
  28.400  0.1664E+00  0.1177E+02
  28.450  0.1526E+00  0.1178E+02
  28.500  0.1473E+00  0.1178E+02
  28.550  0.1496E+00  0.1179E+02
  28.600  0.1508E+00  0.1180E+02
  28.650  0.1536E+00  0.1181E+02
  28.700  0.1753E+00  0.1182E+02
  28.750  0.2219E+00  0.1183E+02
  28.800  0.2685E+00  0.1184E+02
  28.850  0.2851E+00  0.1185E+02
  28.900  0.2790E+00  0.1187E+02
  28.950  0.2897E+00  0.1188E+02
  29.000  0.3348E+00  0.1190E+02
  29.050  0.3806E+00  0.1192E+02
  29.100  0.3845E+00  0.1194E+02
  29.150  0.3482E+00  0.1195E+02
  29.200  0.3083E+00  0.1197E+02
  29.250  0.2899E+00  0.1198E+02
  29.300  0.2942E+00  0.1200E+02
  29.350  0.3164E+00  0.1202E+02
  29.400  0.3486E+00  0.1203E+02
  29.450  0.3741E+00  0.1205E+02
  29.500  0.3800E+00  0.1207E+02
  29.550  0.3730E+00  0.1209E+02
  29.600  0.3697E+00  0.1211E+02
  29.650  0.3727E+00  0.1213E+02
  29.700  0.3684E+00  0.1214E+02
  29.750  0.3504E+00  0.1216E+02
  29.800  0.3371E+00  0.1218E+02
  29.850  0.3516E+00  0.1220E+02
  29.900  0.3907E+00  0.1222E+02
  29.950  0.4275E+00  0.1224E+02
  30.000  0.4390E+00  0.1226E+02
  30.050  0.4192E+00  0.1228E+02
  30.100  0.3707E+00  0.1230E+02
  30.150  0.3002E+00  0.1231E+02
  30.200  0.2211E+00  0.1232E+02
  30.250  0.1515E+00  0.1233E+02
  30.300  0.1086E+00  0.1234E+02
  30.350  0.1029E+00  0.1234E+02
  30.400  0.1326E+00  0.1235E+02
  30.450  0.1854E+00  0.1236E+02
  30.500  0.2507E+00  0.1237E+02
  30.550  0.3270E+00  0.1239E+02
  30.600  0.4113E+00  0.1241E+02
  30.650  0.4852E+00  0.1243E+02
  30.700  0.5239E+00  0.1246E+02
  30.750  0.5180E+00  0.1248E+02
  30.800  0.4783E+00  0.1251E+02
  30.850  0.4208E+00  0.1253E+02
  30.900  0.3553E+00  0.1255E+02
  30.950  0.2901E+00  0.1256E+02
  31.000  0.2418E+00  0.1257E+02
  31.050  0.2329E+00  0.1259E+02
  31.100  0.2685E+00  0.1260E+02
  31.150  0.3183E+00  0.1262E+02
  31.200  0.3403E+00  0.1263E+02
  31.250  0.3290E+00  0.1265E+02
  31.300  0.3187E+00  0.1266E+02
  31.350  0.3390E+00  0.1268E+02
  31.400  0.3858E+00  0.1270E+02
  31.450  0.4335E+00  0.1272E+02
  31.500  0.4557E+00  0.1275E+02
  31.550  0.4341E+00  0.1277E+02
  31.600  0.3663E+00  0.1279E+02
  31.650  0.2716E+00  0.1280E+02
  31.700  0.1842E+00  0.1281E+02
  31.750  0.1367E+00  0.1281E+02
  31.800  0.1424E+00  0.1282E+02
  31.850  0.1883E+00  0.1283E+02
  31.900  0.2461E+00  0.1284E+02
  31.950  0.2918E+00  0.1286E+02
  32.000  0.3219E+00  0.1287E+02
  32.050  0.3539E+00  0.1289E+02
  32.100  0.4051E+00  0.1291E+02
  32.150  0.4682E+00  0.1294E+02
  32.200  0.5099E+00  0.1296E+02
  32.250  0.4981E+00  0.1299E+02
  32.300  0.4276E+00  0.1301E+02
  32.350  0.3233E+00  0.1302E+02
  32.400  0.2232E+00  0.1303E+02
  32.450  0.1550E+00  0.1304E+02
  32.500  0.1251E+00  0.1305E+02
  32.550  0.1244E+00  0.1305E+02
  32.600  0.1417E+00  0.1306E+02
  32.650  0.1665E+00  0.1307E+02
  32.700  0.1857E+00  0.1308E+02
  32.750  0.1905E+00  0.1309E+02
  32.800  0.1933E+00  0.1310E+02
  32.850  0.2267E+00  0.1311E+02
  32.900  0.3114E+00  0.1313E+02
  32.950  0.4244E+00  0.1315E+02
  33.000  0.5107E+00  0.1317E+02
  33.050  0.5318E+00  0.1320E+02
  33.100  0.4947E+00  0.1322E+02
  33.150  0.4331E+00  0.1325E+02
  33.200  0.3720E+00  0.1326E+02
  33.250  0.3177E+00  0.1328E+02
  33.300  0.2700E+00  0.1329E+02
  33.350  0.2325E+00  0.1331E+02
  33.400  0.2111E+00  0.1332E+02
  33.450  0.2038E+00  0.1333E+02
  33.500  0.2010E+00  0.1334E+02
  33.550  0.2004E+00  0.1335E+02
  33.600  0.2167E+00  0.1336E+02
  33.650  0.2638E+00  0.1337E+02
  33.700  0.3329E+00  0.1339E+02
  33.750  0.4017E+00  0.1341E+02
  33.800  0.4602E+00  0.1343E+02
  33.850  0.5074E+00  0.1346E+02
  33.900  0.5339E+00  0.1348E+02
  33.950  0.5325E+00  0.1351E+02
  34.000  0.5224E+00  0.1353E+02
  34.050  0.5362E+00  0.1356E+02
  34.100  0.5770E+00  0.1359E+02
  34.150  0.6016E+00  0.1362E+02
  34.200  0.5610E+00  0.1365E+02
  34.250  0.4604E+00  0.1367E+02
  34.300  0.3611E+00  0.1369E+02
  34.350  0.3146E+00  0.1371E+02
  34.400  0.3127E+00  0.1372E+02
  34.450  0.3115E+00  0.1374E+02
  34.500  0.2873E+00  0.1375E+02
  34.550  0.2516E+00  0.1376E+02
  34.600  0.2249E+00  0.1377E+02
  34.650  0.2183E+00  0.1379E+02
  34.700  0.2390E+00  0.1380E+02
  34.750  0.2927E+00  0.1381E+02
  34.800  0.3701E+00  0.1383E+02
  34.850  0.4407E+00  0.1385E+02
  34.900  0.4715E+00  0.1388E+02
  34.950  0.4557E+00  0.1390E+02
  35.000  0.4188E+00  0.1392E+02
